# The relative spectral response is converted to energy/photon.
# micron energy/photon
4.744210	0.000500
4.748560	0.000490
4.752910	0.000451
4.757270	0.000402
4.761640	0.000370
4.766010	0.000392
4.770400	0.000442
4.774790	0.000426
4.779190	0.000421
4.783600	0.000465
4.788020	0.000433
4.792440	0.000328
4.796880	0.000322
4.801320	0.000356
4.805770	0.000356
4.810230	0.000329
4.814690	0.000346
4.819170	0.000413
4.823650	0.000441
4.828140	0.000414
4.832640	0.000319
4.837150	0.000319
4.841660	0.000398
4.846190	0.000488
4.850720	0.000607
4.855270	0.000720
4.859820	0.000822
4.864370	0.001026
4.868940	0.001404
4.873520	0.001801
4.878100	0.001865
4.882700	0.002415
4.887300	0.002967
4.891910	0.004058
4.896530	0.006761
4.901160	0.010214
4.905790	0.014975
4.910440	0.020541
4.915090	0.026334
4.919760	0.033335
4.924430	0.041091
4.929110	0.048930
4.933800	0.060128
4.938500	0.074087
4.943210	0.091108
4.947920	0.110798
4.952650	0.128690
4.957380	0.149602
4.962130	0.170037
4.966880	0.189763
4.971640	0.209469
4.976410	0.229962
4.981190	0.251534
4.985980	0.273436
4.990780	0.294975
4.995590	0.321012
5.000410	0.339859
5.005230	0.362742
5.010070	0.382594
5.014920	0.399289
5.019770	0.412410
5.024630	0.425440
5.029510	0.434185
5.034390	0.443355
5.039280	0.451900
5.044190	0.458826
5.049100	0.467345
5.054020	0.474358
5.058950	0.482732
5.063890	0.491768
5.068840	0.501057
5.073800	0.511598
5.078770	0.525102
5.083750	0.536630
5.088740	0.550243
5.093740	0.563353
5.098740	0.573238
5.103760	0.580306
5.108790	0.587270
5.113830	0.593596
5.118880	0.598333
5.123940	0.603673
5.129000	0.608428
5.134080	0.612005
5.139170	0.615588
5.144270	0.617987
5.149380	0.619197
5.154500	0.619813
5.159630	0.621027
5.164760	0.622243
5.169910	0.624660
5.175070	0.628281
5.180240	0.631910
5.185420	0.636146
5.190610	0.640991
5.195810	0.645245
5.201030	0.650713
5.206250	0.656191
5.211480	0.661077
5.216720	0.665972
5.221980	0.670878
5.227240	0.675187
5.232520	0.679506
5.237800	0.683832
5.243100	0.685739
5.248400	0.686432
5.253720	0.683476
5.259050	0.679905
5.264390	0.676936
5.269740	0.672740
5.275100	0.669147
5.280470	0.667993
5.285850	0.669286
5.291250	0.673647
5.296650	0.678630
5.302070	0.682396
5.307500	0.688013
5.312930	0.693025
5.318380	0.699281
5.323840	0.706167
5.329310	0.713683
5.334800	0.719980
5.340290	0.727527
5.345800	0.734470
5.351310	0.740806
5.356840	0.746536
5.362380	0.751657
5.367930	0.756166
5.373500	0.760685
5.379070	0.764590
5.384660	0.766632
5.390250	0.767428
5.395860	0.768226
5.401480	0.768401
5.407110	0.767949
5.412760	0.768124
5.418420	0.766417
5.424080	0.766589
5.429760	0.766763
5.435450	0.766307
5.441160	0.767112
5.446870	0.767286
5.452600	0.768725
5.458340	0.770166
5.464090	0.771611
5.469860	0.771792
5.475630	0.773240
5.481420	0.773423
5.487220	0.774877
5.493030	0.774425
5.498860	0.775247
5.504700	0.776708
5.510550	0.778810
5.516410	0.783472
5.522280	0.788144
5.528170	0.793468
5.534070	0.798161
5.539980	0.804148
5.545910	0.810148
5.551840	0.815517
5.557800	0.820899
5.563760	0.826291
5.569730	0.831694
5.575720	0.837110
5.581730	0.838012
5.587740	0.837620
5.593770	0.837228
5.599810	0.836186
5.605860	0.836440
5.611930	0.837346
5.618010	0.839554
5.624100	0.844374
5.630210	0.849857
5.636330	0.856004
5.642460	0.861510
5.648610	0.866376
5.654770	0.871251
5.660940	0.875480
5.667130	0.879720
5.673330	0.883312
5.679540	0.883621
5.685770	0.883931
5.692010	0.884242
5.698270	0.885214
5.704540	0.887510
5.710820	0.892457
5.717110	0.896751
5.723430	0.901057
5.729750	0.905371
5.736090	0.909031
5.742440	0.911368
5.748810	0.915043
5.755190	0.917392
5.761580	0.917075
5.767990	0.912750
5.774410	0.909752
5.780850	0.905409
5.787300	0.903738
5.793770	0.904748
5.800250	0.909120
5.806740	0.913501
5.813250	0.917892
5.819780	0.923642
5.826320	0.928730
5.832870	0.933153
5.839440	0.937586
5.846020	0.941351
5.852620	0.944448
5.859240	0.948231
5.865860	0.948623
5.872510	0.950379
5.879160	0.951455
5.885840	0.952536
5.892530	0.954302
5.899230	0.957437
5.905950	0.959896
5.912680	0.963044
5.919430	0.966201
5.926200	0.970052
5.932980	0.973224
5.939770	0.975026
5.946590	0.977523
5.953410	0.979334
5.960260	0.980461
5.967120	0.982280
5.973990	0.982719
5.980880	0.983853
5.987790	0.985683
5.994710	0.986128
6.001650	0.986574
6.008600	0.985628
6.015570	0.986075
6.022560	0.987221
6.029560	0.989765
6.036580	0.990917
6.043620	0.992773
6.050670	0.994632
6.057740	0.995794
6.064820	0.996256
6.071920	0.998829
6.079040	1.000000
6.086180	0.998354
6.093330	0.995292
6.100500	0.990103
6.107680	0.984900
6.114890	0.978979
6.122110	0.974461
6.129340	0.971352
6.136600	0.967526
6.143870	0.965825
6.151150	0.964832
6.158460	0.964552
6.165780	0.965698
6.173120	0.965417
6.180480	0.964421
6.187860	0.965572
6.195250	0.962419
6.202660	0.957822
6.210090	0.951775
6.217530	0.942832
6.225000	0.931705
6.232480	0.922717
6.239980	0.912984
6.247500	0.906847
6.255030	0.905041
6.262590	0.903233
6.270160	0.903599
6.277750	0.906147
6.285360	0.908702
6.292990	0.911992
6.300640	0.915290
6.308300	0.914941
6.315980	0.914592
6.323690	0.904720
6.331410	0.897023
6.339150	0.881229
6.346910	0.864662
6.354690	0.845109
6.362480	0.805607
6.370300	0.764533
6.378130	0.718185
6.385990	0.671946
6.393860	0.626851
6.401760	0.588839
6.409670	0.538778
6.417600	0.483091
6.425560	0.431436
6.433530	0.370559
6.441520	0.309083
6.449530	0.244765
6.457560	0.190759
6.465610	0.142237
6.473690	0.100417
6.481780	0.068398
6.489890	0.043523
6.498020	0.024630
6.506180	0.012964
6.514350	0.006188
6.522540	0.002803
6.530760	0.000946
6.539000	0.000462
6.547250	0.000341
6.555530	0.000228
6.563830	0.000221
6.572150	0.000198
6.580490	0.000046
6.588850	0.000092
6.597230	0.000206
6.605630	0.000245
6.614060	0.000391
6.622510	0.000499
