# The relative spectral response is converted to energy/photon.
# micron energy/photon
6.151150	0.000163
6.158460	0.000285
6.165780	0.000432
6.173120	0.000474
6.180480	0.000415
6.187860	0.000339
6.195250	0.000222
6.202660	0.000116
6.210090	0.000192
6.217530	0.000285
6.225000	0.000341
6.232480	0.000460
6.239980	0.000530
6.247500	0.000538
6.255030	0.000541
6.262590	0.000670
6.270160	0.001100
6.277750	0.001796
6.285360	0.002785
6.292990	0.004727
6.300640	0.007893
6.308300	0.012314
6.315980	0.018605
6.323690	0.027662
6.331410	0.038358
6.339150	0.051113
6.346910	0.067563
6.354690	0.085617
6.362480	0.104190
6.370300	0.126487
6.378130	0.148387
6.385990	0.173910
6.393860	0.204738
6.401760	0.239482
6.409670	0.269630
6.417600	0.300093
6.425560	0.329913
6.433530	0.355971
6.441520	0.381374
6.449530	0.401554
6.457560	0.418655
6.465610	0.431945
6.473690	0.445752
6.481780	0.458384
6.489890	0.476610
6.498020	0.496092
6.506180	0.513199
6.514350	0.526708
6.522540	0.534418
6.530760	0.538985
6.539000	0.545756
6.547250	0.554251
6.555530	0.560570
6.563830	0.565682
6.572150	0.569582
6.580490	0.570795
6.588850	0.571766
6.597230	0.573968
6.605630	0.573714
6.614060	0.572968
6.622510	0.567778
6.630980	0.563315
6.639470	0.559336
6.647980	0.554108
6.656510	0.552091
6.665070	0.550318
6.673650	0.552021
6.682250	0.556716
6.690870	0.563916
6.699510	0.570635
6.708180	0.577372
6.716870	0.583125
6.725580	0.588142
6.734320	0.592168
6.743070	0.595952
6.751850	0.598238
6.760660	0.602797
6.769480	0.606862
6.778330	0.610686
6.787200	0.614267
6.796100	0.617858
6.805020	0.620697
6.813960	0.624813
6.822930	0.628178
6.831910	0.631550
6.840930	0.633404
6.849960	0.635771
6.859030	0.637380
6.868110	0.637712
6.877220	0.637533
6.886350	0.637096
6.895510	0.636402
6.904690	0.636220
6.913900	0.637842
6.923130	0.641015
6.932380	0.643679
6.941660	0.644282
6.950970	0.644369
6.960300	0.642900
6.969650	0.641167
6.979040	0.637090
6.988440	0.633782
6.997870	0.632030
7.007330	0.631318
7.016810	0.632172
7.026320	0.631981
7.035850	0.631790
7.045410	0.632386
7.055000	0.631669
7.064610	0.630687
7.074250	0.630494
7.083910	0.632410
7.093600	0.635126
7.103320	0.638113
7.113060	0.640843
7.122830	0.642785
7.132630	0.643404
7.142460	0.643226
7.152310	0.643047
7.162190	0.642334
7.172090	0.643489
7.182030	0.647057
7.191990	0.651974
7.201980	0.656636
7.211990	0.661042
7.222040	0.666538
7.232110	0.671779
7.242210	0.673796
7.252340	0.673928
7.262500	0.671896
7.272680	0.667147
7.282900	0.661572
7.293140	0.659513
7.303410	0.658537
7.313710	0.661646
7.324040	0.666401
7.334400	0.674449
7.344790	0.682793
7.355210	0.692257
7.365660	0.697906
7.376140	0.702472
7.386640	0.705399
7.397180	0.704476
7.407750	0.702998
7.418350	0.701240
7.428970	0.700307
7.439630	0.703806
7.450320	0.710369
7.461040	0.720287
7.471790	0.731904
7.482570	0.742997
7.493390	0.753843
7.504230	0.762763
7.515110	0.771429
7.526010	0.778998
7.536950	0.785185
7.547920	0.789984
7.558930	0.794797
7.569960	0.798214
7.581030	0.799663
7.592130	0.799420
7.603260	0.797759
7.614420	0.798079
7.625620	0.799537
7.636850	0.802706
7.648120	0.808450
7.659410	0.815351
7.670740	0.820844
7.682110	0.824637
7.693510	0.826434
7.704940	0.824504
7.716400	0.824005
7.727900	0.822642
7.739440	0.824447
7.751010	0.827990
7.762610	0.832700
7.774250	0.837425
7.785920	0.843033
7.797630	0.849240
7.809370	0.855174
7.821150	0.860544
7.832970	0.867098
7.844820	0.873963
7.856700	0.880263
7.868620	0.884238
7.880580	0.887343
7.892580	0.886342
7.904610	0.884159
7.916680	0.879019
7.928780	0.874750
7.940920	0.873426
7.953100	0.873581
7.965320	0.877594
7.977570	0.881916
7.989870	0.886253
8.002200	0.891497
8.014560	0.896457
8.026970	0.901135
8.039420	0.905828
8.051900	0.909634
8.064420	0.916457
8.076980	0.921195
8.089580	0.928359
8.102220	0.932526
8.114900	0.934288
8.127620	0.936055
8.140380	0.936008
8.153180	0.935961
8.166020	0.936827
8.178900	0.940133
8.191820	0.944670
8.204780	0.951667
8.217790	0.957463
8.230830	0.962049
8.243920	0.963579
8.257040	0.965113
8.270210	0.965728
8.283420	0.965418
8.296680	0.966036
8.309970	0.968513
8.323310	0.969137
8.336690	0.968831
8.350120	0.966970
8.363590	0.965725
8.377100	0.965724
8.390650	0.967599
8.404250	0.971046
8.417890	0.977640
8.431580	0.983314
8.445310	0.986804
8.459090	0.989675
8.472910	0.990344
8.486780	0.987855
8.500690	0.985990
8.514650	0.986340
8.528660	0.988916
8.542710	0.990545
8.556800	0.993773
8.570950	0.998291
8.585140	0.998664
8.599380	1.000000
8.613660	0.995563
8.627990	0.991754
8.642370	0.985356
8.656800	0.976035
8.671280	0.963129
8.685800	0.952443
8.700370	0.943019
8.715000	0.939085
8.729670	0.942617
8.744390	0.950071
8.759160	0.958856
8.773980	0.967017
8.788850	0.973567
8.803770	0.978828
8.818750	0.979508
8.833770	0.975910
8.848850	0.969004
8.863970	0.962403
8.879150	0.955780
8.894380	0.952780
8.909660	0.948441
8.925000	0.944754
8.940380	0.941718
8.955830	0.936338
8.971320	0.929601
8.986870	0.922841
9.002470	0.918070
9.018130	0.911602
9.033840	0.904102
9.049600	0.896575
9.065430	0.892064
9.081300	0.885166
9.097230	0.873839
9.113220	0.861113
9.129270	0.849364
9.145370	0.827690
9.161520	0.800478
9.177740	0.766673
9.194010	0.733433
9.210340	0.691496
9.226730	0.652504
9.243180	0.610962
9.259680	0.570306
9.276250	0.530197
9.292870	0.497560
9.309560	0.462726
9.326300	0.429156
9.343100	0.394073
9.359970	0.356422
9.376900	0.316993
9.393880	0.277035
9.410930	0.237845
9.428040	0.196966
9.445220	0.161112
9.462450	0.127065
9.479750	0.096745
9.497110	0.071303
9.514540	0.051227
9.532030	0.036262
9.549580	0.025740
9.567200	0.017503
9.584890	0.011753
9.602640	0.008229
9.620450	0.005793
9.638330	0.004108
9.656280	0.002943
9.674300	0.001838
9.692380	0.001008
9.710530	0.000601
9.728750	0.000428
9.747040	0.000327
9.765390	0.000418
9.783820	0.000488
9.802310	0.000241
9.820880	0.000176
9.839510	0.000348
9.858220	0.000375
9.877000	0.000604
9.895850	0.001102
9.914770	0.001234
9.933760	0.001203
9.952830	0.001187
9.971970	0.001025
9.991180	0.001083
10.010500	0.001022
10.029800	0.000602
10.049300	0.000588
10.068800	0.000780
10.088400	0.000707
10.108000	0.000546
10.127800	0.000604
10.147600	0.000881
10.167500	0.001095
10.187500	0.001002
10.207500	0.000692
10.227700	0.000335
10.247900	0.000179
10.268200	0.000436
10.288500	0.000817
10.309000	0.000941
10.329500	0.000824
10.350100	0.000756
10.370800	0.000781
10.391600	0.000891
10.412500	0.001059
10.433400	0.001053
10.454500	0.001009
10.475600	0.000984
10.496800	0.000743
